// Pressure    Depth  Temperature   Density   Basalt       Vs         Vp        Entropy
// (GPa)       (km)     (K)       (g/cm^3)  Fraction    (km/s)     (km/s)     (J/(g.K))  
  0.00       0.00    1000.00     3.19960   0.180     4.34444     7.61345     1.92266
  0.10       5.74    1000.00     3.20369   0.180     4.34958     7.62634     1.92155
  0.20       9.64    1000.00     3.20800   0.180     4.35513     7.63957     1.92044
  0.30      13.55    1000.00     3.21259   0.180     4.36122     7.65328     1.91931
  0.40      17.22    1000.00     3.21756   0.180     4.36802     7.66762     1.91815
  0.50      20.74    1000.00     3.22299   0.180     4.37569     7.68275     1.91696
  0.60      24.26    1000.00     3.22896   0.180     4.38441     7.69873     1.91573
  0.70      27.30    1000.00     3.23551   0.180     4.39422     7.71550     1.91448
  0.80      30.33    1000.00     3.30797   0.180     4.52455     7.85061     1.90411
  0.90      33.35    1000.00     3.31104   0.180     4.52767     7.86222     1.90307
  1.00      36.37    1000.00     3.31410   0.180     4.53076     7.87375     1.90204
  1.10      39.40    1000.00     3.31715   0.180     4.53384     7.88521     1.90101
  1.20      42.39    1000.00     3.35571   0.180     4.59368     8.04356     1.90050
  1.30      45.37    1000.00     3.35926   0.180     4.59759     8.05651     1.89947
  1.40      48.36    1000.00     3.36268   0.180     4.60135     8.06892     1.89845
  1.50      51.34    1000.00     3.36600   0.180     4.60499     8.08087     1.89745
  1.60      54.33    1000.00     3.36923   0.180     4.60853     8.09244     1.89647
  1.70      57.31    1000.00     3.37240   0.180     4.61199     8.10371     1.89550
  1.80      60.30    1000.00     3.37550   0.180     4.61536     8.11465     1.89454
  1.90      63.33    1000.00     3.37855   0.180     4.61867     8.12537     1.89360
  2.00      66.36    1000.00     3.38155   0.180     4.62193     8.13590     1.89266
  2.10      69.39    1000.00     3.38452   0.180     4.62514     8.14624     1.89173
  2.20      72.42    1000.00     3.38745   0.180     4.62831     8.15642     1.89081
  2.30      75.45    1000.00     3.39034   0.180     4.63144     8.16646     1.88990
  2.40      78.48    1000.00     3.39321   0.180     4.63454     8.17637     1.88900
  2.50      81.50    1000.00     3.39606   0.180     4.63760     8.18617     1.88810
  2.60      84.49    1000.00     3.39888   0.180     4.64063     8.19586     1.88722
  2.70      87.48    1000.00     3.40168   0.180     4.64364     8.20546     1.88633
  2.80      90.47    1000.00     3.40445   0.180     4.64663     8.21498     1.88546
  2.90      93.46    1000.00     3.40722   0.180     4.64959     8.22441     1.88459
  3.00      96.45    1000.00     3.40996   0.180     4.65253     8.23378     1.88372
  3.10      99.44    1000.00     3.41269   0.180     4.65545     8.24307     1.88286
  3.20     102.44    1000.00     3.41541   0.180     4.65835     8.25230     1.88201
  3.30     105.43    1000.00     3.41811   0.180     4.66123     8.26147     1.88116
  3.40     108.42    1000.00     3.42079   0.180     4.66410     8.27059     1.88031
  3.50     111.41    1000.00     3.42347   0.180     4.66695     8.27965     1.87948
  3.60     114.40    1000.00     3.42614   0.180     4.66979     8.28866     1.87864
  3.70     117.41    1000.00     3.42879   0.180     4.67261     8.29762     1.87781
  3.80     120.43    1000.00     3.43143   0.180     4.67542     8.30654     1.87699
  3.90     123.45    1000.00     3.43407   0.180     4.67822     8.31541     1.87617
  4.00     126.47    1000.00     3.43669   0.180     4.68100     8.32424     1.87535
  4.10     129.48    1000.00     3.43930   0.180     4.68377     8.33303     1.87454
  4.20     132.50    1000.00     3.44191   0.180     4.68653     8.34178     1.87373
  4.30     135.52    1000.00     3.44450   0.180     4.68927     8.35050     1.87293
  4.40     138.53    1000.00     3.44709   0.180     4.69201     8.35917     1.87213
  4.50     141.55    1000.00     3.44967   0.180     4.69473     8.36782     1.87134
  4.60     144.57    1000.00     3.45224   0.180     4.69744     8.37642     1.87055
  4.70     147.59    1000.00     3.45481   0.180     4.70014     8.38499     1.86976
  4.80     150.60    1000.00     3.45736   0.180     4.70283     8.39353     1.86898
  4.90     153.62    1000.00     3.45991   0.180     4.70551     8.40204     1.86820
  5.00     156.64    1000.00     3.46246   0.180     4.70818     8.41052     1.86743
  5.10     159.66    1000.00     3.46499   0.180     4.71084     8.41897     1.86666
  5.20     162.67    1000.00     3.46752   0.180     4.71350     8.42738     1.86589
  5.30     165.69    1000.00     3.47004   0.180     4.71614     8.43577     1.86513
  5.40     168.71    1000.00     3.47255   0.180     4.71877     8.44413     1.86437
  5.50     171.72    1000.00     3.47506   0.180     4.72140     8.45246     1.86361
  5.60     174.74    1000.00     3.47757   0.180     4.72401     8.46076     1.86286
  5.70     177.76    1000.00     3.48006   0.180     4.72662     8.46904     1.86211
  5.80     180.78    1000.00     3.48255   0.180     4.72922     8.47729     1.86137
  5.90     183.79    1000.00     3.48504   0.180     4.73181     8.48552     1.86063
  6.00     186.79    1000.00     3.48752   0.180     4.73439     8.49372     1.85989
  6.10     189.79    1000.00     3.48999   0.180     4.73696     8.50189     1.85915
  6.20     192.78    1000.00     3.49246   0.180     4.73953     8.51004     1.85842
  6.30     195.77    1000.00     3.49492   0.180     4.74209     8.51817     1.85769
  6.40     198.76    1000.00     3.49738   0.180     4.74464     8.52627     1.85696
  6.50     201.75    1000.00     3.49983   0.180     4.74718     8.53435     1.85624
  6.60     204.74    1000.00     3.50228   0.180     4.74972     8.54241     1.85552
  6.70     207.74    1000.00     3.50473   0.180     4.75225     8.55045     1.85481
  6.80     210.73    1000.00     3.50717   0.180     4.75477     8.55846     1.85409
  6.90     213.72    1000.00     3.50960   0.180     4.75729     8.56645     1.85338
  7.00     216.71    1000.00     3.51203   0.180     4.75980     8.57443     1.85267
  7.10     219.70    1000.00     3.52276   0.180     4.80112     8.62310     1.84945
  7.20     222.63    1000.00     3.52517   0.180     4.80383     8.63095     1.84870
  7.30     225.55    1000.00     3.52758   0.180     4.80652     8.63879     1.84795
  7.40     228.47    1000.00     3.52998   0.180     4.80921     8.64660     1.84720
  7.50     231.40    1000.00     3.53238   0.180     4.81190     8.65440     1.84646
  7.60     234.32    1000.00     3.53477   0.180     4.81457     8.66217     1.84572
  7.70     237.24    1000.00     3.53716   0.180     4.81724     8.66993     1.84498
  7.80     240.16    1000.00     3.53954   0.180     4.81989     8.67767     1.84425
  7.90     243.08    1000.00     3.54192   0.180     4.82255     8.68539     1.84351
  8.00     246.01    1000.00     3.54429   0.180     4.82519     8.69309     1.84279
  8.10     248.93    1000.00     3.54666   0.180     4.82783     8.70077     1.84206
  8.20     251.85    1000.00     3.54903   0.180     4.83045     8.70844     1.84133
  8.30     254.77    1000.00     3.55139   0.180     4.83308     8.71609     1.84061
  8.40     257.69    1000.00     3.55375   0.180     4.83569     8.72372     1.83989
  8.50     260.62    1000.00     3.55610   0.180     4.83830     8.73133     1.83918
  8.60     263.54    1000.00     3.55845   0.180     4.84090     8.73893     1.83846
  8.70     266.45    1000.00     3.56080   0.180     4.84349     8.74651     1.83775
  8.80     269.36    1000.00     3.56314   0.180     4.84608     8.75408     1.83705
  8.90     272.26    1000.00     3.56548   0.180     4.84866     8.76163     1.83634
  9.00     275.16    1000.00     3.56781   0.180     4.85124     8.76916     1.83564
  9.10     278.06    1000.00     3.57015   0.180     4.85380     8.77668     1.83494
  9.20     280.97    1000.00     3.57248   0.180     4.85636     8.78419     1.83424
  9.30     283.87    1000.00     3.57480   0.180     4.85892     8.79167     1.83354
  9.40     286.77    1000.00     3.57713   0.180     4.86147     8.79915     1.83285
  9.50     289.68    1000.00     3.57945   0.180     4.86401     8.80661     1.83216
  9.60     292.58    1000.00     3.58176   0.180     4.86654     8.81405     1.83147
  9.70     295.48    1000.00     3.58671   0.180     4.87512     8.83082     1.82975
  9.80     298.39    1000.00     3.59351   0.180     4.88797     8.85423     1.82733
  9.90     301.29    1000.00     3.60040   0.180     4.90108     8.87808     1.82492
 10.00     304.19    1000.00     3.60742   0.180     4.91454     8.90250     1.82251
 10.10     307.10    1000.00     3.61461   0.180     4.92846     8.92767     1.82009
 10.20     310.00    1000.00     3.62201   0.180     4.94298     8.95377     1.81763
 10.30     312.81    1000.00     3.62968   0.180     4.95823     8.98104     1.81514
 10.40     315.62    1000.00     3.63768   0.180     4.97440     9.00973     1.81258
 10.50     318.44    1000.00     3.64610   0.180     4.99172     9.04020     1.80993
 10.60     321.25    1000.00     3.65502   0.180     5.01046     9.07285     1.80718
 10.70     324.06    1000.00     3.66459   0.180     5.03096     9.10822     1.80428
 10.80     326.88    1000.00     3.67494   0.180     5.05367     9.14697     1.80120
 10.90     329.69    1000.00     3.68629   0.180     5.07918     9.19002     1.79788
 11.00     332.50    1000.00     3.69892   0.180     5.10830     9.23858     1.79426
 11.10     335.31    1000.00     3.71320   0.180     5.14214     9.29434     1.79024
 11.20     338.13    1000.00     3.72967   0.180     5.18230     9.35975     1.78570
 11.30     340.94    1000.00     3.74254   0.180     5.21343     9.41113     1.78217
 11.40     343.75    1000.00     3.74462   0.180     5.21561     9.41789     1.78153
 11.50     346.56    1000.00     3.74669   0.180     5.21779     9.42464     1.78089
 11.60     349.38    1000.00     3.74876   0.180     5.21996     9.43138     1.78025
 11.70     352.19    1000.00     3.75083   0.180     5.22213     9.43811     1.77962
 11.80     355.00    1000.00     3.75290   0.180     5.22430     9.44484     1.77898
 11.90     357.81    1000.00     3.75497   0.180     5.22646     9.45155     1.77835
 12.00     360.62    1000.00     3.75704   0.180     5.22861     9.45826     1.77772
 12.10     363.44    1000.00     3.75911   0.180     5.23076     9.46495     1.77710
 12.20     366.25    1000.00     3.76118   0.180     5.23291     9.47164     1.77647
 12.30     369.06    1000.00     3.76325   0.180     5.23505     9.47832     1.77585
 12.40     371.88    1000.00     3.76533   0.180     5.23719     9.48500     1.77523
 12.50     374.69    1000.00     3.76740   0.180     5.23932     9.49167     1.77461
 12.60     377.50    1000.00     3.76948   0.180     5.24145     9.49833     1.77399
 12.70     380.31    1000.00     3.77156   0.180     5.24357     9.50498     1.77338
 12.80     383.12    1000.00     3.77364   0.180     5.24569     9.51163     1.77276
 12.90     385.94    1000.00     3.77572   0.180     5.24781     9.51827     1.77215
 13.00     388.75    1000.00     3.77781   0.180     5.24992     9.52491     1.77154
 13.10     391.56    1000.00     3.77990   0.180     5.25203     9.53154     1.77094
 13.20     394.38    1000.00     3.78199   0.180     5.25414     9.53817     1.77033
 13.30     397.19    1000.00     3.78409   0.180     5.25624     9.54479     1.76973
 13.40     400.00    1000.00     3.78619   0.180     5.25833     9.55141     1.76913
 13.50     402.78    1000.00     3.78829   0.180     5.26043     9.55802     1.76853
 13.60     405.56    1000.00     3.79040   0.180     5.26251     9.56464     1.76793
 13.70     408.33    1000.00     3.79252   0.180     5.26460     9.57125     1.76733
 13.80     411.11    1000.00     3.82716   0.180     5.33557     9.68554     1.75768
 13.90     413.89    1000.00     3.82985   0.180     5.34123     9.69582     1.75674
 14.00     416.67    1000.00     3.83260   0.180     5.34716     9.70641     1.75577
 14.10     419.44    1000.00     3.83541   0.180     5.35339     9.71734     1.75478
 14.20     422.22    1000.00     3.83830   0.180     5.35997     9.72868     1.75376
 14.30     425.00    1000.00     3.84126   0.180     5.36693     9.74046     1.75271
 14.40     427.78    1000.00     3.84432   0.180     5.37432     9.75274     1.75161
 14.50     430.56    1000.00     3.84749   0.180     5.38220     9.76557     1.75048
 14.60     433.33    1000.00     3.85076   0.180     5.39061     9.77902     1.74929
 14.70     436.11    1000.00     3.85416   0.180     5.39958     9.79312     1.74806
 14.80     438.89    1000.00     3.85768   0.180     5.40914     9.80789     1.74677
 14.90     441.67    1000.00     3.86132   0.180     5.41927     9.82332     1.74543
 15.00     444.44    1000.00     3.86507   0.180     5.42990     9.83931     1.74405
 15.10     447.22    1000.00     3.86889   0.180     5.44089     9.85569     1.74263
 15.20     450.00    1000.00     3.87272   0.180     5.45200     9.87218     1.74121
 15.30     452.63    1000.00     3.87652   0.180     5.46296     9.88845     1.73980
 15.40     455.26    1000.00     3.88021   0.180     5.47348     9.90416     1.73844
 15.50     457.89    1000.00     3.88375   0.180     5.48334     9.91905     1.73715
 15.60     460.53    1000.00     3.88711   0.180     5.49239     9.93296     1.73592
 15.70     463.16    1000.00     3.89027   0.180     5.50058     9.94582     1.73479
 15.80     465.79    1000.00     3.89324   0.180     5.50789     9.95762     1.73373
 15.90     468.42    1000.00     3.89601   0.180     5.51429     9.96833     1.73276
 16.00     471.05    1000.00     3.89857   0.180     5.51980     9.97797     1.73188
 16.10     473.68    1000.00     3.90095   0.180     5.52444     9.98658     1.73107
 16.20     476.32    1000.00     3.90317   0.180     5.52838     9.99435     1.73034
 16.30     478.95    1000.00     3.90529   0.180     5.53181    10.00152     1.72964
 16.40     481.58    1000.00     3.90733   0.180     5.53490    10.00829     1.72899
 16.50     484.21    1000.00     3.96772   0.180     5.69603    10.24723     1.71419
 16.60     486.84    1000.00     3.96971   0.180     5.69889    10.25362     1.71358
 16.70     489.47    1000.00     3.97166   0.180     5.70158    10.25982     1.71300
 16.80     492.11    1000.00     3.97358   0.180     5.70415    10.26587     1.71242
 16.90     494.74    1000.00     3.97548   0.180     5.70664    10.27181     1.71186
 17.00     497.37    1000.00     3.97737   0.180     5.70904    10.27765     1.71130
 17.10     500.00    1000.00     3.97924   0.180     5.71138    10.28341     1.71075
 17.20     502.50    1000.00     3.98111   0.180     5.71367    10.28910     1.71021
 17.30     505.00    1000.00     3.98296   0.180     5.71592    10.29473     1.70968
 17.40     507.50    1000.00     3.98480   0.180     5.71812    10.30031     1.70915
 17.50     510.00    1000.00     3.98664   0.180     5.72028    10.30583     1.70862
 17.60     512.50    1000.00     3.98847   0.180     5.72242    10.31132     1.70810
 17.70     515.00    1000.00     3.99029   0.180     5.72453    10.31676     1.70758
 17.80     517.50    1000.00     3.99211   0.180     5.72661    10.32217     1.70707
 17.90     520.00    1000.00     3.99393   0.180     5.72867    10.32754     1.70656
 18.00     522.50    1000.00     3.99574   0.180     5.73071    10.33288     1.70606
 18.10     525.00    1000.00     3.99755   0.180     5.73273    10.33819     1.70555
 18.20     527.50    1000.00     3.99936   0.180     5.73473    10.34347     1.70506
 18.30     530.00    1000.00     4.00116   0.180     5.73672    10.34873     1.70456
 18.40     532.50    1000.00     4.00296   0.180     5.73869    10.35396     1.70407
 18.50     535.00    1000.00     4.00476   0.180     5.74066    10.35918     1.70358
 18.60     537.50    1000.00     4.00657   0.180     5.74261    10.36437     1.70309
 18.70     540.00    1000.00     4.00837   0.180     5.74456    10.36954     1.70261
 18.80     542.50    1000.00     4.01017   0.180     5.74649    10.37469     1.70213
 18.90     545.00    1000.00     4.01258   0.180     5.74845    10.38003     1.70187
 19.00     547.50    1000.00     4.01600   0.180     5.75041    10.38567     1.70196
 19.10     550.00    1000.00     4.01929   0.180     5.75231    10.39121     1.70202
 19.20     552.63    1000.00     4.02233   0.180     5.75393    10.39648     1.70204
 19.30     555.26    1000.00     4.02524   0.180     5.75553    10.40169     1.70203
 19.40     557.90    1000.00     4.02803   0.180     5.75712    10.40684     1.70197
 19.50     560.53    1000.00     4.03070   0.180     5.75870    10.41194     1.70188
 19.60     563.16    1000.00     4.03327   0.180     5.76027    10.41700     1.70175
 19.70     565.79    1000.00     4.03575   0.180     5.76183    10.42201     1.70159
 19.80     568.42    1000.00     4.03815   0.180     5.76339    10.42699     1.70141
 19.90     571.05    1000.00     4.04048   0.180     5.76494    10.43193     1.70121
 20.00     573.68    1000.00     4.04275   0.180     5.76648    10.43684     1.70098
 20.10     576.32    1000.00     4.04496   0.180     5.76801    10.44172     1.70074
 20.20     578.95    1000.00     4.04712   0.180     5.76954    10.44657     1.70048
 20.30     581.58    1000.00     4.04924   0.180     5.77106    10.45140     1.70021
 20.40     584.21    1000.00     4.05132   0.180     5.77258    10.45620     1.69993
 20.50     586.84    1000.00     4.05336   0.180     5.77409    10.46098     1.69964
 20.60     589.47    1000.00     4.05538   0.180     5.77559    10.46574     1.69934
 20.70     592.11    1000.00     4.05736   0.180     5.77709    10.47048     1.69903
 20.80     594.74    1000.00     4.05931   0.180     5.77858    10.47520     1.69871
 20.90     597.37    1000.00     4.06285   0.180     5.77782    10.48209     1.69808
 21.00     600.00    1000.00     4.07737   0.180     5.76280    10.50506     1.69514
 21.10     602.50    1000.00     4.07939   0.180     5.76516    10.51097     1.69465
 21.20     605.00    1000.00     4.08141   0.180     5.76755    10.51693     1.69416
 21.30     607.50    1000.00     4.08342   0.180     5.76998    10.52293     1.69366
 21.40     610.00    1000.00     4.08544   0.180     5.77243    10.52897     1.69315
 21.50     612.50    1000.00     4.08745   0.180     5.77492    10.53507     1.69263
 21.60     615.00    1000.00     4.08948   0.180     5.77746    10.54124     1.69210
 21.70     617.50    1000.00     4.09150   0.180     5.78004    10.54747     1.69156
 21.80     620.00    1000.00     4.09354   0.180     5.78268    10.55379     1.69100
 21.90     622.50    1000.00     4.09559   0.180     5.78539    10.56019     1.69043
 22.00     625.00    1000.00     4.09765   0.180     5.78816    10.56669     1.68985
 22.10     627.50    1000.00     4.09973   0.180     5.79101    10.57332     1.68925
 22.20     630.00    1000.00     4.10183   0.180     5.79395    10.58007     1.68864
 22.30     632.50    1000.00     4.10415   0.180     5.79729    10.58738     1.68795
 22.40     635.00    1000.00     4.10735   0.180     5.80214    10.59680     1.68697
 22.50     637.50    1000.00     4.11058   0.180     5.80725    10.60661     1.68596
 22.60     640.00    1000.00     4.11387   0.180     5.81266    10.61687     1.68490
 22.70     642.50    1000.00     4.11723   0.180     5.81846    10.62769     1.68379
 22.80     645.00    1000.00     4.12070   0.180     5.82472    10.63921     1.68260
 22.90     647.50    1000.00     4.12433   0.180     5.83158    10.65159     1.68131
 23.00     650.00    1000.00     4.12816   0.180     5.83918    10.66505     1.67992
 23.10     652.50    1000.00     4.13226   0.180     5.84774    10.67992     1.67837
 23.20     655.00    1000.00     4.13673   0.180     5.85758    10.69665     1.67663
