// Pressure    Depth  Temperature   Density   Basalt       Vs         Vp        Entropy
// (GPa)       (km)     (K)       (g/cm^3)  Fraction    (km/s)     (km/s)     (J/(g.K))
  0.00       0.00    1400.00     3.15950   0.180     4.19892     7.35715     2.32967
  0.10       5.74    1400.00     3.16469   0.180     4.20619     7.37253     2.32838
  0.20       9.64    1400.00     3.17027   0.180     4.21420     7.38805     2.32708
  0.30      13.55    1400.00     3.17631   0.180     4.22313     7.40402     2.32577
  0.40      17.22    1400.00     3.18298   0.180     4.23327     7.42064     2.32444
  0.50      20.74    1400.00     3.19050   0.180     4.24510     7.43820     2.32307
  0.60      24.26    1400.00     3.19923   0.180     4.25933     7.45716     2.32164
  0.70      27.30    1400.00     3.20980   0.180     4.27721     7.47828     2.32010
  0.80      30.33    1400.00     3.22331   0.180     4.30103     7.50299     2.31840
  0.90      33.35    1400.00     3.25861   0.180     4.36748     7.56583     2.31363
  1.00      36.37    1400.00     3.26207   0.180     4.37119     7.57940     2.31235
  1.10      39.40    1400.00     3.26551   0.180     4.37488     7.59285     2.31108
  1.20      42.39    1400.00     3.26892   0.180     4.37853     7.60618     2.30982
  1.30      45.37    1400.00     3.27231   0.180     4.38215     7.61940     2.30858
  1.40      48.36    1400.00     3.27569   0.180     4.38575     7.63250     2.30735
  1.50      51.34    1400.00     3.27904   0.180     4.38931     7.64549     2.30614
  1.60      54.33    1400.00     3.28237   0.180     4.39284     7.65837     2.30494
  1.70      57.31    1400.00     3.30948   0.180     4.43548     7.78372     2.30280
  1.80      60.30    1400.00     3.31585   0.180     4.44405     7.81132     2.30134
  1.90      63.33    1400.00     3.32159   0.180     4.45164     7.83570     2.29996
  2.00      66.36    1400.00     3.32683   0.180     4.45848     7.85761     2.29866
  2.10      69.39    1400.00     3.33170   0.180     4.46474     7.87761     2.29741
  2.20      72.42    1400.00     3.33627   0.180     4.47054     7.89607     2.29621
  2.30      75.45    1400.00     3.34059   0.180     4.47597     7.91330     2.29504
  2.40      78.48    1400.00     3.34442   0.180     4.48055     7.92810     2.29392
  2.50      81.50    1400.00     3.34798   0.180     4.48466     7.94152     2.29283
  2.60      84.49    1400.00     3.35145   0.180     4.48865     7.95446     2.29176
  2.70      87.48    1400.00     3.35483   0.180     4.49252     7.96701     2.29071
  2.80      90.47    1400.00     3.35815   0.180     4.49629     7.97920     2.28967
  2.90      93.46    1400.00     3.36142   0.180     4.49998     7.99108     2.28864
  3.00      96.45    1400.00     3.36462   0.180     4.50360     8.00270     2.28762
  3.10      99.44    1400.00     3.36779   0.180     4.50715     8.01409     2.28662
  3.20     102.44    1400.00     3.37091   0.180     4.51064     8.02526     2.28562
  3.30     105.43    1400.00     3.37399   0.180     4.51408     8.03625     2.28464
  3.40     108.42    1400.00     3.37705   0.180     4.51747     8.04706     2.28366
  3.50     111.41    1400.00     3.38007   0.180     4.52082     8.05773     2.28270
  3.60     114.40    1400.00     3.38306   0.180     4.52413     8.06825     2.28174
  3.70     117.41    1400.00     3.38603   0.180     4.52740     8.07865     2.28078
  3.80     120.43    1400.00     3.38898   0.180     4.53064     8.08894     2.27984
  3.90     123.45    1400.00     3.39190   0.180     4.53385     8.09911     2.27890
  4.00     126.47    1400.00     3.39481   0.180     4.53703     8.10919     2.27797
  4.10     129.48    1400.00     3.39769   0.180     4.54018     8.11918     2.27705
  4.20     132.50    1400.00     3.40056   0.180     4.54331     8.12909     2.27613
  4.30     135.52    1400.00     3.40341   0.180     4.54642     8.13891     2.27522
  4.40     138.53    1400.00     3.40625   0.180     4.54950     8.14866     2.27431
  4.50     141.55    1400.00     3.40907   0.180     4.55257     8.15835     2.27341
  4.60     144.57    1400.00     3.41188   0.180     4.55561     8.16796     2.27252
  4.70     147.59    1400.00     3.41468   0.180     4.55864     8.17752     2.27163
  4.80     150.60    1400.00     3.41746   0.180     4.56164     8.18701     2.27075
  4.90     153.62    1400.00     3.42023   0.180     4.56463     8.19645     2.26987
  5.00     156.64    1400.00     3.42299   0.180     4.56761     8.20584     2.26900
  5.10     159.66    1400.00     3.42574   0.180     4.57057     8.21518     2.26813
  5.20     162.67    1400.00     3.42848   0.180     4.57352     8.22447     2.26726
  5.30     165.69    1400.00     3.43121   0.180     4.57645     8.23372     2.26641
  5.40     168.71    1400.00     3.43393   0.180     4.57937     8.24292     2.26555
  5.50     171.72    1400.00     3.43664   0.180     4.58227     8.25208     2.26470
  5.60     174.74    1400.00     3.43935   0.180     4.58517     8.26120     2.26386
  5.70     177.76    1400.00     3.44204   0.180     4.58805     8.27028     2.26302
  5.80     180.78    1400.00     3.44473   0.180     4.59092     8.27932     2.26218
  5.90     183.79    1400.00     3.44741   0.180     4.59378     8.28833     2.26135
  6.00     186.79    1400.00     3.45008   0.180     4.59663     8.29730     2.26053
  6.10     189.79    1400.00     3.45275   0.180     4.59947     8.30624     2.25970
  6.20     192.78    1400.00     3.45541   0.180     4.60230     8.31515     2.25888
  6.30     195.77    1400.00     3.45806   0.180     4.60512     8.32402     2.25807
  6.40     198.76    1400.00     3.46071   0.180     4.60793     8.33287     2.25726
  6.50     201.75    1400.00     3.46335   0.180     4.61074     8.34169     2.25645
  6.60     204.74    1400.00     3.46599   0.180     4.61353     8.35048     2.25565
  6.70     207.74    1400.00     3.46862   0.180     4.61632     8.35924     2.25485
  6.80     210.73    1400.00     3.47124   0.180     4.61910     8.36798     2.25405
  6.90     213.72    1400.00     3.47386   0.180     4.62188     8.37669     2.25326
  7.00     216.71    1400.00     3.47648   0.180     4.62465     8.38537     2.25247
  7.10     219.70    1400.00     3.47909   0.180     4.62741     8.39404     2.25169
  7.20     222.63    1400.00     3.48170   0.180     4.63016     8.40268     2.25090
  7.30     225.55    1400.00     3.48430   0.180     4.63291     8.41130     2.25012
  7.40     228.47    1400.00     3.48690   0.180     4.63566     8.41990     2.24935
  7.50     231.40    1400.00     3.48950   0.180     4.63840     8.42848     2.24858
  7.60     234.32    1400.00     3.49209   0.180     4.64113     8.43704     2.24781
  7.70     237.24    1400.00     3.49469   0.180     4.64387     8.44558     2.24704
  7.80     240.16    1400.00     3.49728   0.180     4.64660     8.45410     2.24628
  7.90     243.08    1400.00     3.49986   0.180     4.64932     8.46261     2.24552
  8.00     246.01    1400.00     3.50245   0.180     4.65204     8.47110     2.24476
  8.10     248.93    1400.00     3.50503   0.180     4.65476     8.47957     2.24400
  8.20     251.85    1400.00     3.50762   0.180     4.65748     8.48804     2.24325
  8.30     254.77    1400.00     3.51020   0.180     4.66020     8.49649     2.24250
  8.40     257.69    1400.00     3.51278   0.180     4.66291     8.50492     2.24175
  8.50     260.62    1400.00     3.51536   0.180     4.66563     8.51335     2.24101
  8.60     263.54    1400.00     3.51794   0.180     4.66834     8.52176     2.24026
  8.70     266.45    1400.00     3.52053   0.180     4.67106     8.53017     2.23952
  8.80     269.36    1400.00     3.52856   0.180     4.70959     8.57754     2.23688
  8.90     272.26    1400.00     3.53109   0.180     4.71231     8.58561     2.23611
  9.00     275.16    1400.00     3.53362   0.180     4.71503     8.59367     2.23534
  9.10     278.06    1400.00     3.53614   0.180     4.71774     8.60170     2.23458
  9.20     280.97    1400.00     3.53867   0.180     4.72043     8.60972     2.23382
  9.30     283.87    1400.00     3.54119   0.180     4.72312     8.61772     2.23306
  9.40     286.77    1400.00     3.54371   0.180     4.72580     8.62570     2.23231
  9.50     289.68    1400.00     3.54623   0.180     4.72847     8.63367     2.23155
  9.60     292.58    1400.00     3.54875   0.180     4.73113     8.64163     2.23080
  9.70     295.48    1400.00     3.55127   0.180     4.73379     8.64957     2.23006
  9.80     298.39    1400.00     3.55379   0.180     4.73643     8.65750     2.22931
  9.90     301.29    1400.00     3.55630   0.180     4.73907     8.66541     2.22857
 10.00     304.19    1400.00     3.55882   0.180     4.74170     8.67331     2.22783
 10.10     307.10    1400.00     3.56134   0.180     4.74432     8.68120     2.22710
 10.20     310.00    1400.00     3.56386   0.180     4.74693     8.68907     2.22636
 10.30     312.81    1400.00     3.56638   0.180     4.74954     8.69694     2.22563
 10.40     315.62    1400.00     3.56890   0.180     4.75213     8.70479     2.22491
 10.50     318.44    1400.00     3.57143   0.180     4.75472     8.71263     2.22418
 10.60     321.25    1400.00     3.57395   0.180     4.75731     8.72047     2.22346
 10.70     324.06    1400.00     3.57648   0.180     4.75988     8.72829     2.22274
 10.80     326.88    1400.00     3.57902   0.180     4.76245     8.73611     2.22202
 10.90     329.69    1400.00     3.58155   0.180     4.76501     8.74392     2.22130
 11.00     332.50    1400.00     3.58409   0.180     4.76756     8.75172     2.22059
 11.10     335.31    1400.00     3.58664   0.180     4.77011     8.75951     2.21988
 11.20     338.13    1400.00     3.58919   0.180     4.77265     8.76730     2.21917
 11.30     340.94    1400.00     3.59174   0.180     4.77519     8.77508     2.21846
 11.40     343.75    1400.00     3.59431   0.180     4.77771     8.78287     2.21776
 11.50     346.56    1400.00     3.59688   0.180     4.78024     8.79064     2.21706
 11.60     349.38    1400.00     3.59945   0.180     4.78275     8.79842     2.21636
 11.70     352.19    1400.00     3.60204   0.180     4.78526     8.80619     2.21566
 11.80     355.00    1400.00     3.60463   0.180     4.78776     8.81397     2.21496
 11.90     357.81    1400.00     3.61060   0.180     4.79894     8.83483     2.21303
 12.00     360.62    1400.00     3.62393   0.180     4.82921     8.88453     2.20848
 12.10     363.44    1400.00     3.63790   0.180     4.86141     8.93718     2.20384
 12.20     366.25    1400.00     3.65272   0.180     4.89616     8.99373     2.19906
 12.30     369.06    1400.00     3.66867   0.180     4.93427     9.05540     2.19406
 12.40     371.88    1400.00     3.68610   0.180     4.97682     9.12382     2.18875
 12.50     374.69    1400.00     3.70549   0.180     5.02530     9.20121     2.18302
 12.60     377.50    1400.00     3.72748   0.180     5.08182     9.29076     2.17669
 12.70     380.31    1400.00     3.74492   0.180     5.12637     9.36217     2.17180
 12.80     383.12    1400.00     3.74740   0.180     5.12863     9.36958     2.17114
 12.90     385.94    1400.00     3.74989   0.180     5.13089     9.37701     2.17047
 13.00     388.75    1400.00     3.75240   0.180     5.13314     9.38445     2.16981
 13.10     391.56    1400.00     3.75494   0.180     5.13539     9.39191     2.16915
 13.20     394.38    1400.00     3.75749   0.180     5.13764     9.39938     2.16849
 13.30     397.19    1400.00     3.76006   0.180     5.13988     9.40687     2.16783
 13.40     400.00    1400.00     3.76266   0.180     5.14211     9.41438     2.16718
 13.50     402.78    1400.00     3.76529   0.180     5.14435     9.42191     2.16653
 13.60     405.56    1400.00     3.76794   0.180     5.14658     9.42947     2.16588
 13.70     408.33    1400.00     3.77063   0.180     5.14880     9.43706     2.16524
 13.80     411.11    1400.00     3.77334   0.180     5.15103     9.44468     2.16459
 13.90     413.89    1400.00     3.77609   0.180     5.15325     9.45234     2.16395
 14.00     416.67    1400.00     3.77889   0.180     5.15547     9.46003     2.16331
 14.10     419.44    1400.00     3.78172   0.180     5.15769     9.46777     2.16268
 14.20     422.22    1400.00     3.78460   0.180     5.15990     9.47556     2.16204
 14.30     425.00    1400.00     3.78753   0.180     5.16212     9.48340     2.16141
 14.40     427.78    1400.00     3.79051   0.180     5.16433     9.49130     2.16079
 14.50     430.56    1400.00     3.79356   0.180     5.16654     9.49927     2.16016
 14.60     433.33    1400.00     3.79667   0.180     5.16876     9.50730     2.15954
 14.70     436.11    1400.00     3.79985   0.180     5.17097     9.51542     2.15892
 14.80     438.89    1400.00     3.80311   0.180     5.17319     9.52363     2.15830
 14.90     441.67    1400.00     3.80586   0.180     5.17598     9.53156     2.15765
 15.00     444.44    1400.00     3.80820   0.180     5.17923     9.53924     2.15697
 15.10     447.22    1400.00     3.81054   0.180     5.18252     9.54697     2.15628
 15.20     450.00    1400.00     3.81289   0.180     5.18585     9.55473     2.15560
 15.30     452.63    1400.00     3.81526   0.180     5.18922     9.56253     2.15491
 15.40     455.26    1400.00     3.81763   0.180     5.19264     9.57038     2.15422
 15.50     457.89    1400.00     3.82002   0.180     5.19610     9.57827     2.15353
 15.60     460.53    1400.00     3.82241   0.180     5.19962     9.58620     2.15284
 15.70     463.16    1400.00     3.82482   0.180     5.20319     9.59419     2.15215
 15.80     465.79    1400.00     3.82725   0.180     5.20681     9.60222     2.15145
 15.90     468.42    1400.00     3.82969   0.180     5.21049     9.61031     2.15076
 16.00     471.05    1400.00     3.83250   0.180     5.21632     9.62072     2.14979
 16.10     473.68    1400.00     3.83569   0.180     5.22427     9.63340     2.14855
 16.20     476.32    1400.00     3.83889   0.180     5.23223     9.64609     2.14732
 16.30     478.95    1400.00     3.84209   0.180     5.24020     9.65878     2.14609
 16.40     481.58    1400.00     3.84530   0.180     5.24820     9.67147     2.14487
 16.50     484.21    1400.00     3.84851   0.180     5.25620     9.68415     2.14365
 16.60     486.84    1400.00     3.85174   0.180     5.26419     9.69680     2.14244
 16.70     489.47    1400.00     3.85496   0.180     5.27217     9.70942     2.14124
 16.80     492.11    1400.00     3.85818   0.180     5.28012     9.72197     2.14005
 16.90     494.74    1400.00     3.86139   0.180     5.28802     9.73444     2.13886
 17.00     497.37    1400.00     3.86460   0.180     5.29584     9.74679     2.13770
 17.10     500.00    1400.00     3.86779   0.180     5.30357     9.75899     2.13655
 17.20     502.50    1400.00     3.87095   0.180     5.31116     9.77100     2.13541
 17.30     505.00    1400.00     3.87409   0.180     5.31859     9.78279     2.13430
 17.40     507.50    1400.00     3.87720   0.180     5.32584     9.79433     2.13322
 17.50     510.00    1400.00     3.88026   0.180     5.33286     9.80557     2.13217
 17.60     512.50    1400.00     3.88259   0.180     5.33759     9.81411     2.13127
 17.70     515.00    1400.00     3.88477   0.180     5.34184     9.82207     2.13040
 17.80     517.50    1400.00     3.88693   0.180     5.34600     9.82995     2.12955
 17.90     520.00    1400.00     3.90477   0.180     5.39291     9.89987     2.12547
 18.00     522.50    1400.00     3.93325   0.180     5.46661    10.00735     2.11816
 18.10     525.00    1400.00     3.94588   0.180     5.49837    10.05410     2.11447
 18.20     527.50    1400.00     3.94834   0.180     5.50380    10.06340     2.11350
 18.30     530.00    1400.00     3.95171   0.180     5.51055    10.07442     2.11268
 18.40     532.50    1400.00     3.95555   0.180     5.51788    10.08622     2.11195
 18.50     535.00    1400.00     3.95923   0.180     5.52479    10.09751     2.11125
 18.60     537.50    1400.00     3.96277   0.180     5.53131    10.10834     2.11056
 18.70     540.00    1400.00     3.96618   0.180     5.53750    10.11876     2.10989
 18.80     542.50    1400.00     3.96947   0.180     5.54338    10.12880     2.10923
 18.90     545.00    1400.00     3.97265   0.180     5.54897    10.13849     2.10858
 19.00     547.50    1400.00     3.97573   0.180     5.55432    10.14788     2.10795
 19.10     550.00    1400.00     3.97873   0.180     5.55942    10.15697     2.10732
 19.20     552.63    1400.00     3.98164   0.180     5.56431    10.16581     2.10671
 19.30     555.26    1400.00     3.98448   0.180     5.56901    10.17440     2.10610
 19.40     557.90    1400.00     3.98725   0.180     5.57352    10.18277     2.10551
 19.50     560.53    1400.00     3.98995   0.180     5.57787    10.19093     2.10491
 19.60     563.16    1400.00     3.99260   0.180     5.58206    10.19890     2.10433
 19.70     565.79    1400.00     3.99519   0.180     5.58611    10.20670     2.10375
 19.80     568.42    1400.00     3.99772   0.180     5.59002    10.21433     2.10318
 19.90     571.05    1400.00     4.00021   0.180     5.59381    10.22181     2.10262
 20.00     573.68    1400.00     4.00266   0.180     5.59748    10.22914     2.10206
 20.10     576.32    1400.00     4.00506   0.180     5.60104    10.23634     2.10151
 20.20     578.95    1400.00     4.00743   0.180     5.60451    10.24341     2.10096
 20.30     581.58    1400.00     4.00975   0.180     5.60788    10.25036     2.10041
 20.40     584.21    1400.00     4.01205   0.180     5.61115    10.25720     2.09987
 20.50     586.84    1400.00     4.01431   0.180     5.61435    10.26394     2.09934
 20.60     589.47    1400.00     4.01654   0.180     5.61746    10.27058     2.09880
 20.70     592.11    1400.00     4.01874   0.180     5.62051    10.27713     2.09828
 20.80     594.74    1400.00     4.02091   0.180     5.62348    10.28359     2.09775
 20.90     597.37    1400.00     4.02839   0.180     5.61683    10.29553     2.09651
 21.00     600.00    1400.00     4.03613   0.180     5.61064    10.30851     2.09511
 21.10     602.50    1400.00     4.03849   0.180     5.61410    10.31605     2.09445
 21.20     605.00    1400.00     4.04084   0.180     5.61752    10.32351     2.09380
 21.30     607.50    1400.00     4.04316   0.180     5.62088    10.33092     2.09314
 21.40     610.00    1400.00     4.04546   0.180     5.62421    10.33827     2.09249
 21.50     612.50    1400.00     4.04775   0.180     5.62749    10.34556     2.09185
 21.60     615.00    1400.00     4.05001   0.180     5.63075    10.35282     2.09120
 21.70     617.50    1400.00     4.05226   0.180     5.63397    10.36004     2.09055
 21.80     620.00    1400.00     4.05450   0.180     5.63717    10.36722     2.08991
 21.90     622.50    1400.00     4.05672   0.180     5.64035    10.37438     2.08926
 22.00     625.00    1400.00     4.05894   0.180     5.64351    10.38152     2.08862
 22.10     627.50    1400.00     4.06114   0.180     5.64667    10.38865     2.08797
 22.20     630.00    1400.00     4.06334   0.180     5.64981    10.39577     2.08732
 22.30     632.50    1400.00     4.06553   0.180     5.65295    10.40288     2.08667
 22.40     635.00    1400.00     4.06772   0.180     5.65609    10.41000     2.08601
 22.50     637.50    1400.00     4.06990   0.180     5.65924    10.41713     2.08535
 22.60     640.00    1400.00     4.07208   0.180     5.66239    10.42428     2.08469
 22.70     642.50    1400.00     4.07427   0.180     5.66556    10.43145     2.08402
 22.80     645.00    1400.00     4.07645   0.180     5.66875    10.43865     2.08335
 22.90     647.50    1400.00     4.07864   0.180     5.67197    10.44589     2.08267
 23.00     650.00    1400.00     4.08083   0.180     5.67521    10.45317     2.08198
 23.10     652.50    1400.00     4.08303   0.180     5.67849    10.46052     2.08129
 23.20     655.00    1400.00     4.08524   0.180     5.68181    10.46792     2.08058
