// Pressure    Depth  Temperature   Density   Basalt       Vs         Vp        Entropy
// (GPa)       (km)     (K)       (g/cm^3)  Fraction    (km/s)     (km/s)     (J/(g.K))
  0.00       0.00    1100.00     3.18981   0.180     4.30869     7.55368     2.03630
  0.10       5.74    1100.00     3.19411   0.180     4.31422     7.56701     2.03516
  0.20       9.64    1100.00     3.19864   0.180     4.32018     7.58068     2.03401
  0.30      13.55    1100.00     3.20346   0.180     4.32671     7.59480     2.03284
  0.40      17.22    1100.00     3.20867   0.180     4.33398     7.60953     2.03164
  0.50      20.74    1100.00     3.21436   0.180     4.34216     7.62501     2.03042
  0.60      24.26    1100.00     3.22061   0.180     4.35143     7.64133     2.02917
  0.70      27.30    1100.00     3.22749   0.180     4.36191     7.65849     2.02789
  0.80      30.33    1100.00     3.29565   0.180     4.48606     7.78001     2.01857
  0.90      33.35    1100.00     3.29882   0.180     4.48932     7.79211     2.01747
  1.00      36.37    1100.00     3.30197   0.180     4.49255     7.80413     2.01638
  1.10      39.40    1100.00     3.30511   0.180     4.49577     7.81607     2.01530
  1.20      42.39    1100.00     3.30823   0.180     4.49896     7.82792     2.01423
  1.30      45.37    1100.00     3.34512   0.180     4.55630     7.98482     2.01331
  1.40      48.36    1100.00     3.34924   0.180     4.56115     8.00069     2.01219
  1.50      51.34    1100.00     3.35292   0.180     4.56525     8.01435     2.01112
  1.60      54.33    1100.00     3.35646   0.180     4.56919     8.02739     2.01007
  1.70      57.31    1100.00     3.35988   0.180     4.57299     8.03992     2.00905
  1.80      60.30    1100.00     3.36322   0.180     4.57667     8.05200     2.00803
  1.90      63.33    1100.00     3.36648   0.180     4.58026     8.06372     2.00704
  2.00      66.36    1100.00     3.36966   0.180     4.58376     8.07512     2.00605
  2.10      69.39    1100.00     3.37279   0.180     4.58719     8.08625     2.00508
  2.20      72.42    1100.00     3.37587   0.180     4.59056     8.09715     2.00412
  2.30      75.45    1100.00     3.37891   0.180     4.59387     8.10784     2.00317
  2.40      78.48    1100.00     3.38190   0.180     4.59713     8.11834     2.00223
  2.50      81.50    1100.00     3.38486   0.180     4.60035     8.12869     2.00129
  2.60      84.49    1100.00     3.38779   0.180     4.60353     8.13888     2.00037
  2.70      87.48    1100.00     3.39069   0.180     4.60667     8.14895     1.99945
  2.80      90.47    1100.00     3.39357   0.180     4.60978     8.15890     1.99854
  2.90      93.46    1100.00     3.39642   0.180     4.61286     8.16874     1.99764
  3.00      96.45    1100.00     3.39925   0.180     4.61591     8.17849     1.99674
  3.10      99.44    1100.00     3.40205   0.180     4.61894     8.18814     1.99585
  3.20     102.44    1100.00     3.40484   0.180     4.62195     8.19771     1.99497
  3.30     105.43    1100.00     3.40762   0.180     4.62493     8.20720     1.99409
  3.40     108.42    1100.00     3.41038   0.180     4.62789     8.21662     1.99322
  3.50     111.41    1100.00     3.41312   0.180     4.63083     8.22598     1.99235
  3.60     114.40    1100.00     3.41585   0.180     4.63375     8.23527     1.99149
  3.70     117.41    1100.00     3.41856   0.180     4.63666     8.24450     1.99063
  3.80     120.43    1100.00     3.42126   0.180     4.63954     8.25367     1.98978
  3.90     123.45    1100.00     3.42395   0.180     4.64242     8.26280     1.98894
  4.00     126.47    1100.00     3.42663   0.180     4.64527     8.27187     1.98810
  4.10     129.48    1100.00     3.42930   0.180     4.64811     8.28089     1.98726
  4.20     132.50    1100.00     3.43196   0.180     4.65094     8.28987     1.98643
  4.30     135.52    1100.00     3.43461   0.180     4.65376     8.29880     1.98560
  4.40     138.53    1100.00     3.43724   0.180     4.65656     8.30769     1.98478
  4.50     141.55    1100.00     3.43987   0.180     4.65935     8.31654     1.98396
  4.60     144.57    1100.00     3.44249   0.180     4.66212     8.32535     1.98315
  4.70     147.59    1100.00     3.44511   0.180     4.66489     8.33412     1.98234
  4.80     150.60    1100.00     3.44771   0.180     4.66764     8.34286     1.98153
  4.90     153.62    1100.00     3.45030   0.180     4.67038     8.35156     1.98073
  5.00     156.64    1100.00     3.45289   0.180     4.67312     8.36023     1.97993
  5.10     159.66    1100.00     3.45547   0.180     4.67584     8.36886     1.97914
  5.20     162.67    1100.00     3.45804   0.180     4.67855     8.37746     1.97835
  5.30     165.69    1100.00     3.46061   0.180     4.68125     8.38602     1.97757
  5.40     168.71    1100.00     3.46317   0.180     4.68394     8.39456     1.97679
  5.50     171.72    1100.00     3.46572   0.180     4.68662     8.40307     1.97601
  5.60     174.74    1100.00     3.46826   0.180     4.68929     8.41154     1.97524
  5.70     177.76    1100.00     3.47080   0.180     4.69195     8.41999     1.97447
  5.80     180.78    1100.00     3.47334   0.180     4.69461     8.42841     1.97370
  5.90     183.79    1100.00     3.47586   0.180     4.69725     8.43680     1.97294
  6.00     186.79    1100.00     3.47838   0.180     4.69989     8.44517     1.97218
  6.10     189.79    1100.00     3.48090   0.180     4.70252     8.45351     1.97142
  6.20     192.78    1100.00     3.48341   0.180     4.70514     8.46182     1.97067
  6.30     195.77    1100.00     3.48591   0.180     4.70775     8.47011     1.96992
  6.40     198.76    1100.00     3.48841   0.180     4.71036     8.47837     1.96917
  6.50     201.75    1100.00     3.49091   0.180     4.71295     8.48662     1.96843
  6.60     204.74    1100.00     3.49340   0.180     4.71554     8.49483     1.96769
  6.70     207.74    1100.00     3.49588   0.180     4.71813     8.50303     1.96696
  6.80     210.73    1100.00     3.49836   0.180     4.72071     8.51120     1.96622
  6.90     213.72    1100.00     3.50084   0.180     4.72328     8.51935     1.96549
  7.00     216.71    1100.00     3.50331   0.180     4.72584     8.52748     1.96477
  7.10     219.70    1100.00     3.50578   0.180     4.72840     8.53559     1.96404
  7.20     222.63    1100.00     3.50825   0.180     4.73095     8.54368     1.96332
  7.30     225.55    1100.00     3.51071   0.180     4.73350     8.55175     1.96260
  7.40     228.47    1100.00     3.51317   0.180     4.73604     8.55981     1.96189
  7.50     231.40    1100.00     3.52328   0.180     4.77737     8.60903     1.95880
  7.60     234.32    1100.00     3.52571   0.180     4.78008     8.61692     1.95804
  7.70     237.24    1100.00     3.52814   0.180     4.78278     8.62480     1.95728
  7.80     240.16    1100.00     3.53056   0.180     4.78547     8.63265     1.95653
  7.90     243.08    1100.00     3.53298   0.180     4.78815     8.64048     1.95578
  8.00     246.01    1100.00     3.53540   0.180     4.79082     8.64830     1.95504
  8.10     248.93    1100.00     3.53781   0.180     4.79349     8.65610     1.95429
  8.20     251.85    1100.00     3.54021   0.180     4.79615     8.66388     1.95355
  8.30     254.77    1100.00     3.54261   0.180     4.79880     8.67164     1.95282
  8.40     257.69    1100.00     3.54501   0.180     4.80144     8.67938     1.95208
  8.50     260.62    1100.00     3.54741   0.180     4.80407     8.68710     1.95135
  8.60     263.54    1100.00     3.54980   0.180     4.80670     8.69481     1.95062
  8.70     266.45    1100.00     3.55218   0.180     4.80932     8.70250     1.94989
  8.80     269.36    1100.00     3.55457   0.180     4.81193     8.71018     1.94917
  8.90     272.26    1100.00     3.55695   0.180     4.81454     8.71783     1.94845
  9.00     275.16    1100.00     3.55932   0.180     4.81713     8.72547     1.94773
  9.10     278.06    1100.00     3.56170   0.180     4.81972     8.73310     1.94701
  9.20     280.97    1100.00     3.56407   0.180     4.82230     8.74071     1.94630
  9.30     283.87    1100.00     3.56644   0.180     4.82488     8.74830     1.94559
  9.40     286.77    1100.00     3.56880   0.180     4.82745     8.75588     1.94488
  9.50     289.68    1100.00     3.57117   0.180     4.83001     8.76345     1.94418
  9.60     292.58    1100.00     3.57353   0.180     4.83256     8.77099     1.94347
  9.70     295.48    1100.00     3.57589   0.180     4.83511     8.77853     1.94277
  9.80     298.39    1100.00     3.57824   0.180     4.83765     8.78605     1.94207
  9.90     301.29    1100.00     3.58060   0.180     4.84019     8.79356     1.94138
 10.00     304.19    1100.00     3.58295   0.180     4.84272     8.80105     1.94069
 10.10     307.10    1100.00     3.58530   0.180     4.84524     8.80853     1.93999
 10.20     310.00    1100.00     3.58765   0.180     4.84775     8.81600     1.93931
 10.30     312.81    1100.00     3.59378   0.180     4.85925     8.83723     1.93716
 10.40     315.62    1100.00     3.60175   0.180     4.87520     8.86532     1.93436
 10.50     318.44    1100.00     3.60990   0.180     4.89165     8.89420     1.93154
 10.60     321.25    1100.00     3.61828   0.180     4.90874     8.92411     1.92871
 10.70     324.06    1100.00     3.62695   0.180     4.92667     8.95533     1.92583
 10.80     326.88    1100.00     3.63600   0.180     4.94566     8.98820     1.92289
 10.90     329.69    1100.00     3.64552   0.180     4.96599     9.02312     1.91986
 11.00     332.50    1100.00     3.65564   0.180     4.98798     9.06061     1.91670
 11.10     335.31    1100.00     3.66650   0.180     5.01207     9.10133     1.91338
 11.20     338.13    1100.00     3.67829   0.180     5.03883     9.14612     1.90984
 11.30     340.94    1100.00     3.69128   0.180     5.06900     9.19611     1.90603
 11.40     343.75    1100.00     3.70580   0.180     5.10361     9.25287     1.90185
 11.50     346.56    1100.00     3.72234   0.180     5.14410     9.31859     1.89720
 11.60     349.38    1100.00     3.74108   0.180     5.19123     9.39438     1.89203
 11.70     352.19    1100.00     3.74321   0.180     5.19342     9.40124     1.89138
 11.80     355.00    1100.00     3.74534   0.180     5.19561     9.40810     1.89073
 11.90     357.81    1100.00     3.74747   0.180     5.19779     9.41494     1.89009
 12.00     360.62    1100.00     3.74960   0.180     5.19997     9.42178     1.88944
 12.10     363.44    1100.00     3.75174   0.180     5.20214     9.42861     1.88880
 12.20     366.25    1100.00     3.75387   0.180     5.20431     9.43543     1.88817
 12.30     369.06    1100.00     3.75601   0.180     5.20647     9.44225     1.88753
 12.40     371.88    1100.00     3.75815   0.180     5.20862     9.44906     1.88690
 12.50     374.69    1100.00     3.76030   0.180     5.21078     9.45586     1.88626
 12.60     377.50    1100.00     3.76245   0.180     5.21292     9.46266     1.88563
 12.70     380.31    1100.00     3.76460   0.180     5.21507     9.46946     1.88501
 12.80     383.12    1100.00     3.76676   0.180     5.21721     9.47625     1.88438
 12.90     385.94    1100.00     3.76892   0.180     5.21934     9.48304     1.88376
 13.00     388.75    1100.00     3.77109   0.180     5.22147     9.48982     1.88314
 13.10     391.56    1100.00     3.77326   0.180     5.22359     9.49660     1.88252
 13.20     394.38    1100.00     3.77544   0.180     5.22571     9.50338     1.88190
 13.30     397.19    1100.00     3.77762   0.180     5.22782     9.51016     1.88129
 13.40     400.00    1100.00     3.77982   0.180     5.22993     9.51693     1.88067
 13.50     402.78    1100.00     3.78202   0.180     5.23204     9.52371     1.88006
 13.60     405.56    1100.00     3.78422   0.180     5.23414     9.53048     1.87945
 13.70     408.33    1100.00     3.78644   0.180     5.23624     9.53726     1.87885
 13.80     411.11    1100.00     3.78867   0.180     5.23833     9.54404     1.87824
 13.90     413.89    1100.00     3.79091   0.180     5.24042     9.55082     1.87764
 14.00     416.67    1100.00     3.79316   0.180     5.24250     9.55761     1.87704
 14.10     419.44    1100.00     3.79542   0.180     5.24458     9.56440     1.87644
 14.20     422.22    1100.00     3.82539   0.180     5.30549     9.66208     1.86797
 14.30     425.00    1100.00     3.82813   0.180     5.31138     9.67261     1.86699
 14.40     427.78    1100.00     3.83092   0.180     5.31746     9.68337     1.86599
 14.50     430.56    1100.00     3.83375   0.180     5.32377     9.69437     1.86497
 14.60     433.33    1100.00     3.83664   0.180     5.33031     9.70565     1.86394
 14.70     436.11    1100.00     3.83958   0.180     5.33712     9.71723     1.86288
 14.80     438.89    1100.00     3.84258   0.180     5.34422     9.72913     1.86180
 14.90     441.67    1100.00     3.84564   0.180     5.35162     9.74137     1.86068
 15.00     444.44    1100.00     3.84878   0.180     5.35934     9.75398     1.85955
 15.10     447.22    1100.00     3.85199   0.180     5.36739     9.76696     1.85838
 15.20     450.00    1100.00     3.85526   0.180     5.37577     9.78031     1.85718
 15.30     452.63    1100.00     3.85860   0.180     5.38445     9.79399     1.85596
 15.40     455.26    1100.00     3.86199   0.180     5.39340     9.80797     1.85471
 15.50     457.89    1100.00     3.86543   0.180     5.40255     9.82216     1.85345
 15.60     460.53    1100.00     3.86888   0.180     5.41181     9.83644     1.85218
 15.70     463.16    1100.00     3.87233   0.180     5.42106     9.85068     1.85091
 15.80     465.79    1100.00     3.87574   0.180     5.43016     9.86471     1.84966
 15.90     468.42    1100.00     3.87908   0.180     5.43899     9.87839     1.84844
 16.00     471.05    1100.00     3.88233   0.180     5.44742     9.89156     1.84726
 16.10     473.68    1100.00     3.88548   0.180     5.45537     9.90413     1.84613
 16.20     476.32    1100.00     3.88849   0.180     5.46277     9.91603     1.84505
 16.30     478.95    1100.00     3.89138   0.180     5.46960     9.92723     1.84403
 16.40     481.58    1100.00     3.89414   0.180     5.47585     9.93773     1.84306
 16.50     484.21    1100.00     3.89677   0.180     5.48153     9.94754     1.84215
 16.60     486.84    1100.00     3.89928   0.180     5.48667     9.95670     1.84129
 16.70     489.47    1100.00     3.90168   0.180     5.49132     9.96526     1.84048
 16.80     492.11    1100.00     3.90398   0.180     5.49552     9.97329     1.83971
 16.90     494.74    1100.00     3.96388   0.180     5.65527    10.20839     1.82498
 17.00     497.37    1100.00     3.96615   0.180     5.65930    10.21613     1.82426
 17.10     500.00    1100.00     3.96833   0.180     5.66299    10.22345     1.82358
 17.20     502.50    1100.00     3.97046   0.180     5.66641    10.23046     1.82292
 17.30     505.00    1100.00     3.97254   0.180     5.66963    10.23722     1.82228
 17.40     507.50    1100.00     3.97459   0.180     5.67270    10.24380     1.82166
 17.50     510.00    1100.00     3.97661   0.180     5.67565    10.25023     1.82105
 17.60     512.50    1100.00     3.97861   0.180     5.67850    10.25654     1.82045
 17.70     515.00    1100.00     3.98060   0.180     5.68127    10.26274     1.81986
 17.80     517.50    1100.00     3.98257   0.180     5.68397    10.26886     1.81928
 17.90     520.00    1100.00     3.98453   0.180     5.68662    10.27490     1.81871
 18.00     522.50    1100.00     3.98648   0.180     5.68921    10.28086     1.81815
 18.10     525.00    1100.00     3.98842   0.180     5.69175    10.28677     1.81759
 18.20     527.50    1100.00     3.99035   0.180     5.69426    10.29263     1.81703
 18.30     530.00    1100.00     3.99228   0.180     5.69673    10.29843     1.81648
 18.40     532.50    1100.00     3.99420   0.180     5.69917    10.30418     1.81594
 18.50     535.00    1100.00     3.99683   0.180     5.70164    10.31024     1.81566
 18.60     537.50    1100.00     3.99993   0.180     5.70398    10.31639     1.81559
 18.70     540.00    1100.00     4.00293   0.180     5.70626    10.32243     1.81549
 18.80     542.50    1100.00     4.00583   0.180     5.70848    10.32836     1.81537
 18.90     545.00    1100.00     4.00864   0.180     5.71064    10.33421     1.81522
 19.00     547.50    1100.00     4.01136   0.180     5.71276    10.33997     1.81506
 19.10     550.00    1100.00     4.01400   0.180     5.71484    10.34565     1.81487
 19.20     552.63    1100.00     4.01657   0.180     5.71688    10.35126     1.81466
 19.30     555.26    1100.00     4.01907   0.180     5.71888    10.35680     1.81444
 19.40     557.90    1100.00     4.02150   0.180     5.72085    10.36228     1.81419
 19.50     560.53    1100.00     4.02388   0.180     5.72279    10.36771     1.81394
 19.60     563.16    1100.00     4.02620   0.180     5.72470    10.37308     1.81367
 19.70     565.79    1100.00     4.02848   0.180     5.72658    10.37840     1.81339
 19.80     568.42    1100.00     4.03071   0.180     5.72844    10.38368     1.81309
 19.90     571.05    1100.00     4.03291   0.180     5.73028    10.38891     1.81279
 20.00     573.68    1100.00     4.03506   0.180     5.73210    10.39410     1.81248
 20.10     576.32    1100.00     4.03718   0.180     5.73389    10.39926     1.81216
 20.20     578.95    1100.00     4.03927   0.180     5.73567    10.40438     1.81183
 20.30     581.58    1100.00     4.04133   0.180     5.73743    10.40947     1.81150
 20.40     584.21    1100.00     4.04336   0.180     5.73917    10.41452     1.81116
 20.50     586.84    1100.00     4.04537   0.180     5.74090    10.41955     1.81081
 20.60     589.47    1100.00     4.04735   0.180     5.74261    10.42454     1.81046
 20.70     592.11    1100.00     4.04931   0.180     5.74430    10.42951     1.81011
 20.80     594.74    1100.00     4.05125   0.180     5.74598    10.43446     1.80975
 20.90     597.37    1100.00     4.05476   0.180     5.74522    10.44145     1.80911
 21.00     600.00    1100.00     4.06883   0.180     5.72956    10.46324     1.80647
 21.10     602.50    1100.00     4.07086   0.180     5.73203    10.46934     1.80596
 21.20     605.00    1100.00     4.07289   0.180     5.73451    10.47545     1.80544
 21.30     607.50    1100.00     4.07492   0.180     5.73701    10.48159     1.80492
 21.40     610.00    1100.00     4.07694   0.180     5.73952    10.48776     1.80439
 21.50     612.50    1100.00     4.07897   0.180     5.74206    10.49396     1.80386
 21.60     615.00    1100.00     4.08099   0.180     5.74463    10.50020     1.80331
 21.70     617.50    1100.00     4.08302   0.180     5.74723    10.50649     1.80276
 21.80     620.00    1100.00     4.08505   0.180     5.74986    10.51283     1.80220
 21.90     622.50    1100.00     4.08709   0.180     5.75254    10.51923     1.80163
 22.00     625.00    1100.00     4.08914   0.180     5.75526    10.52569     1.80105
 22.10     627.50    1100.00     4.09120   0.180     5.75803    10.53224     1.80046
 22.20     630.00    1100.00     4.09327   0.180     5.76087    10.53887     1.79986
 22.30     632.50    1100.00     4.09535   0.180     5.76377    10.54560     1.79924
 22.40     635.00    1100.00     4.09745   0.180     5.76675    10.55245     1.79861
 22.50     637.50    1100.00     4.09958   0.180     5.76982    10.55942     1.79796
 22.60     640.00    1100.00     4.10172   0.180     5.77298    10.56653     1.79730
 22.70     642.50    1100.00     4.10390   0.180     5.77625    10.57380     1.79661
 22.80     645.00    1100.00     4.10611   0.180     5.77965    10.58126     1.79591
 22.90     647.50    1100.00     4.10947   0.180     5.78512    10.59165     1.79482
 23.00     650.00    1100.00     4.11301   0.180     5.79115    10.60286     1.79363
 23.10     652.50    1100.00     4.11665   0.180     5.79761    10.61470     1.79239
 23.20     655.00    1100.00     4.12040   0.180     5.80459    10.62732     1.79106
